File: PP.csv
/////////////////////////////////////////////////////////////////////////////////
/// Profile Data Ascii Dump (XRD)                                             ///
/////////////////////////////////////////////////////////////////////////////////

  Group     : 2019_03_13_Fernanda
  Data      : PP
  File Name : PP.RAW

# Profile Datafile
          comment             =
          date & time         = 03-13-19 10:47:29

# Measurement Condition
    X-ray tube
          target              = Cu
          voltage             = 40.0 (kV)
          current             = 40.0 (mA)
    Slits
          divergence slit     = 1.00000 (mm)
          scatter slit        = 1.00000 (mm)
          receiving slit      = 0.30000 (mm)
    Scanning
          drive axis          = Theta-2Theta
          scan range          =   15.000 -   40.000
          scan mode           = Continuous Scan
          scan speed          =   2.0000 (deg/min)
          sampling pitch      =   0.0200 (deg)
          preset time         =   0.60 (sec)

# Data      [ Total No. = 1251 ]
  <2Theta>   <   I   >
    15.0000       306
    15.1000       312
    15.2000       306
    15.3000       330
    15.4000       320
    15.5000       344
    15.6000       366
    15.7000       392
    15.8000       502
    15.9000       596
    16.0000       702
    16.1000       598
    16.2000       516
    16.3000       520
    16.4000       564
    16.5000       648
    16.6000       694
    16.7000       850
    16.8000       926
    16.9000       856
    17.0000       614
    17.1000       442
    17.2000       400
    17.3000       388
    17.4000       376
    17.5000       368
    17.6000       436
    17.7000       408
    17.8000       424
    17.9000       430
    18.0000       482
    18.1000       544
    18.2000       588
    18.3000       648
    18.4000       728
    18.5000       654
    18.6000       532
    18.7000       482
    18.8000       390
    18.9000       370
    19.0000       352
    19.1000       300
    19.2000       328
    19.3000       266
    19.4000       280
    19.5000       298
    19.6000       296
    19.7000       294
    19.8000       342
    19.9000       318
    20.0000       356
    20.1000       378
    20.2000       360
    20.3000       418
    20.4000       410
    20.5000       428
    20.6000       430
    20.7000       488
    20.8000       562
    20.9000       634
    21.0000       644
    21.1000       672
    21.2000       618
    21.3000       552
    21.4000       532
    21.5000       538
    21.6000       606
    21.7000       640
    21.8000       616
    21.9000       530
    22.0000       448
    22.1000       348
    22.2000       272
    22.3000       232
    22.4000       196
    22.5000       176
    22.6000       162
    22.7000       140
    22.8000       166
    22.9000       160
    23.0000       166
    23.1000       148
    23.2000       160
    23.3000       130
    23.4000       146
    23.5000       136
    23.6000       130
    23.7000       152
    23.8000       146
    23.9000       168
    24.0000       160
    24.1000       146
    24.2000       152
    24.3000       158
    24.4000       158
    24.5000       156
    24.6000       144
    24.7000       130
    24.8000       144
    24.9000       168
    25.0000       136
    25.1000       178
    25.2000       184
    25.3000       190
    25.4000       174
    25.5000       158
    25.6000       152
    25.7000       116
    25.8000       102
    25.9000       102
    26.0000       108
    26.1000       120
    26.2000       104
    26.3000        94
    26.4000        96
    26.5000       102
    26.6000        92
    26.7000       126
    26.8000       116
    26.9000       124
    27.0000       108
    27.1000       134
    27.2000       118
    27.3000       104
    27.4000       106
    27.5000       104
    27.6000       110
    27.7000       118
    27.8000       118
    27.9000       120
    28.0000       128
    28.1000       114
    28.2000       142
    28.3000       154
    28.4000       146
    28.5000       128
    28.6000       112
    28.7000       106
    28.8000       124
    28.9000       122
    29.0000       104
    29.1000       108
    29.2000       112
    29.3000        96
    29.4000        98
    29.5000        84
    29.6000        84
    29.7000        70
    29.8000        76
    29.9000        62
    30.0000        76
    30.1000        82
    30.2000        80
    30.3000        84
    30.4000        76
    30.5000        78
    30.6000        80
    30.7000        84
    30.8000        68
    30.9000        68
    31.0000        76
    31.1000        78
    31.2000        84
    31.3000       100
    31.4000        96
    31.5000        82
    31.6000        84
    31.7000       108
    31.8000        96
    31.9000        78
    32.0000        78
    32.1000        78
    32.2000        80
    32.3000        64
    32.4000        80
    32.5000        90
    32.6000        96
    32.7000        70
    32.8000        82
    32.9000        86
    33.0000       102
    33.1000       102
    33.2000       120
    33.3000        86
    33.4000       112
    33.5000        92
    33.6000        94
    33.7000        82
    33.8000        80
    33.9000        72
    34.0000        90
    34.1000        78
    34.2000        90
    34.3000        74
    34.4000        86
    34.5000        86
    34.6000        82
    34.7000        96
    34.8000        94
    34.9000        90
    35.0000        96
    35.1000        84
    35.2000        82
    35.3000        80
    35.4000        88
    35.5000        76
    35.6000        88
    35.7000        82
    35.8000        88
    35.9000        98
    36.0000        90
    36.1000        92
    36.2000        82
    36.3000        90
    36.4000        72
    36.5000        82
    36.6000        88
    36.7000       112
    36.8000        88
    36.9000        94
    37.0000        94
    37.1000       102
    37.2000        80
    37.3000        88
    37.4000        84
    37.5000        90
    37.6000        86
    37.7000        74
    37.8000        98
    37.9000        78
    38.0000        94
    38.1000        68
    38.2000        90
    38.3000        86
    38.4000        78
    38.5000        86
    38.6000        88
    38.7000        94
    38.8000        78
    38.9000        90
    39.0000        88
    39.1000        98
    39.2000        92
    39.3000        92
    39.4000        90
    39.5000        78
    39.6000        98
    39.7000        76
    39.8000        90
    39.9000        90
    40.0000        88